Start Wavelength:    200.0000
End Wavelength:    800.0000
Read Mode:  ABS
Read Average:      0.1000
Nanometer Interval:      1.0000
Time:      0.0000

  200.0000      0.0001
  201.0000      0.0008
  202.0000      0.0012
  203.0000      0.0009
  204.0000      0.0004
  205.0000      0.0004
  206.0000      0.0003
  207.0000      0.0003
  208.0000      0.0001
  209.0000      0.0005
  210.0000      0.0005
  211.0000     -0.0001
  212.0000      0.0002
  213.0000      0.0004
  214.0000     -0.0000
  215.0000      0.0002
  216.0000      0.0004
  217.0000     -0.0001
  218.0000      0.0003
  219.0000      0.0004
  220.0000      0.0004
  221.0000      0.0002
  222.0000      0.0002
  223.0000      0.0003
  224.0000      0.0005
  225.0000      0.0003
  226.0000      0.0003
  227.0000      0.0002
  228.0000      0.0001
  229.0000      0.0002
  230.0000      0.0003
  231.0000      0.0002
  232.0000      0.0004
  233.0000      0.0003
  234.0000     -0.0000
  235.0000      0.0002
  236.0000      0.0002
  237.0000      0.0001
  238.0000      0.0001
  239.0000      0.0003
  240.0000      0.0000
  241.0000      0.0002
  242.0000      0.0002
  243.0000      0.0003
  244.0000      0.0002
  245.0000     -0.0000
  246.0000     -0.0001
  247.0000     -0.0002
  248.0000      0.0001
  249.0000     -0.0002
  250.0000      0.0001
  251.0000     -0.0002
  252.0000      0.0000
  253.0000      0.0001
  254.0000      0.0002
  255.0000     -0.0000
  256.0000      0.0002
  257.0000      0.0002
  258.0000     -0.0001
  259.0000     -0.0001
  260.0000      0.0001
  261.0000     -0.0002
  262.0000     -0.0003
  263.0000     -0.0003
  264.0000     -0.0003
  265.0000     -0.0004
  266.0000      0.0001
  267.0000     -0.0000
  268.0000      0.0002
  269.0000      0.0003
  270.0000      0.0006
  271.0000      0.0005
  272.0000      0.0002
  273.0000     -0.0001
  274.0000      0.0003
  275.0000      0.0002
  276.0000     -0.0000
  277.0000     -0.0002
  278.0000     -0.0000
  279.0000     -0.0002
  280.0000     -0.0002
  281.0000     -0.0002
  282.0000      0.0004
  283.0000     -0.0001
  284.0000     -0.0000
  285.0000      0.0002
  286.0000      0.0001
  287.0000      0.0006
  288.0000      0.0003
  289.0000      0.0005
  290.0000     -0.0001
  291.0000      0.0005
  292.0000     -0.0001
  293.0000      0.0004
  294.0000      0.0001
  295.0000      0.0001
  296.0000     -0.0000
  297.0000      0.0001
  298.0000      0.0001
  299.0000     -0.0001
  300.0000      0.0002
  301.0000      0.0002
  302.0000     -0.0000
  303.0000     -0.0001
  304.0000     -0.0001
  305.0000      0.0004
  306.0000      0.0002
  307.0000      0.0003
  308.0000      0.0002
  309.0000      0.0001
  310.0000      0.0005
  311.0000      0.0003
  312.0000      0.0001
  313.0000      0.0002
  314.0000      0.0002
  315.0000     -0.0002
  316.0000     -0.0002
  317.0000     -0.0006
  318.0000     -0.0005
  319.0000     -0.0001
  320.0000     -0.0003
  321.0000     -0.0000
  322.0000     -0.0001
  323.0000      0.0001
  324.0000     -0.0001
  325.0000     -0.0002
  326.0000     -0.0001
  327.0000     -0.0004
  328.0000     -0.0000
  329.0000     -0.0003
  330.0000     -0.0001
  331.0000      0.0001
  332.0000      0.0003
  333.0000     -0.0003
  334.0000      0.0003
  335.0000     -0.0000
  336.0000      0.0001
  337.0000      0.0002
  338.0000     -0.0002
  339.0000     -0.0002
  340.0000      0.0001
  341.0000      0.0002
  342.0000     -0.0000
  343.0000     -0.0002
  344.0000     -0.0003
  345.0000      0.0000
  346.0000     -0.0002
  347.0000     -0.0004
  348.0000     -0.0003
  349.0000     -0.0001
  350.0000     -0.0002
  351.0000      0.0001
  352.0000      0.0002
  353.0000      0.0001
  354.0000     -0.0000
  355.0000     -0.0000
  356.0000     -0.0003
  357.0000     -0.0096
  358.0000     -0.0008
  359.0000     -0.0000
  360.0000      0.0004
  361.0000     -0.0000
  362.0000      0.0006
  363.0000     -0.0004
  364.0000     -0.0002
  365.0000      0.0010
  366.0000      0.0002
  367.0000     -0.0002
  368.0000     -0.0003
  369.0000      0.0009
  370.0000      0.0003
  371.0000      0.0003
  372.0000      0.0016
  373.0000      0.0007
  374.0000      0.0008
  375.0000     -0.0001
  376.0000      0.0010
  377.0000      0.0005
  378.0000      0.0006
  379.0000      0.0002
  380.0000      0.0003
  381.0000      0.0005
  382.0000      0.0002
  383.0000      0.0003
  384.0000     -0.0002
  385.0000     -0.0001
  386.0000     -0.0004
  387.0000     -0.0000
  388.0000      0.0001
  389.0000      0.0003
  390.0000      0.0008
  391.0000     -0.0000
  392.0000      0.0006
  393.0000      0.0005
  394.0000      0.0005
  395.0000      0.0003
  396.0000     -0.0000
  397.0000      0.0006
  398.0000      0.0005
  399.0000      0.0005
  400.0000      0.0007
  401.0000      0.0003
  402.0000      0.0005
  403.0000      0.0004
  404.0000     -0.0000
  405.0000      0.0003
  406.0000      0.0003
  407.0000      0.0002
  408.0000     -0.0000
  409.0000      0.0003
  410.0000     -0.0001
  411.0000      0.0001
  412.0000     -0.0001
  413.0000      0.0001
  414.0000      0.0002
  415.0000      0.0001
  416.0000      0.0003
  417.0000      0.0004
  418.0000      0.0002
  419.0000      0.0002
  420.0000      0.0002
  421.0000      0.0002
  422.0000      0.0003
  423.0000      0.0002
  424.0000      0.0002
  425.0000      0.0002
  426.0000      0.0000
  427.0000      0.0002
  428.0000      0.0001
  429.0000      0.0001
  430.0000      0.0002
  431.0000      0.0002
  432.0000      0.0001
  433.0000      0.0002
  434.0000      0.0002
  435.0000      0.0002
  436.0000      0.0002
  437.0000      0.0002
  438.0000      0.0001
  439.0000      0.0001
  440.0000      0.0001
  441.0000      0.0001
  442.0000      0.0001
  443.0000      0.0001
  444.0000      0.0001
  445.0000      0.0001
  446.0000      0.0001
  447.0000      0.0000
  448.0000      0.0001
  449.0000      0.0001
  450.0000      0.0000
  451.0000      0.0000
  452.0000     -0.0000
  453.0000     -0.0000
  454.0000     -0.0000
  455.0000     -0.0001
  456.0000     -0.0001
  457.0000     -0.0001
  458.0000     -0.0000
  459.0000     -0.0001
  460.0000     -0.0001
  461.0000      0.0000
  462.0000      0.0001
  463.0000      0.0001
  464.0000      0.0001
  465.0000      0.0002
  466.0000      0.0002
  467.0000      0.0002
  468.0000      0.0002
  469.0000      0.0003
  470.0000      0.0003
  471.0000      0.0003
  472.0000      0.0003
  473.0000      0.0003
  474.0000      0.0003
  475.0000      0.0002
  476.0000      0.0002
  477.0000      0.0001
  478.0000      0.0001
  479.0000      0.0001
  480.0000      0.0000
  481.0000      0.0001
  482.0000      0.0001
  483.0000      0.0001
  484.0000      0.0000
  485.0000      0.0001
  486.0000      0.0000
  487.0000     -0.0000
  488.0000      0.0000
  489.0000     -0.0000
  490.0000      0.0000
  491.0000     -0.0000
  492.0000     -0.0000
  493.0000      0.0000
  494.0000     -0.0000
  495.0000      0.0000
  496.0000      0.0000
  497.0000      0.0000
  498.0000      0.0000
  499.0000      0.0000
  500.0000      0.0000
  501.0000      0.0000
  502.0000     -0.0000
  503.0000     -0.0000
  504.0000     -0.0001
  505.0000     -0.0000
  506.0000     -0.0000
  507.0000     -0.0001
  508.0000     -0.0001
  509.0000     -0.0001
  510.0000     -0.0001
  511.0000     -0.0001
  512.0000     -0.0001
  513.0000     -0.0002
  514.0000     -0.0002
  515.0000     -0.0002
  516.0000     -0.0002
  517.0000     -0.0002
  518.0000     -0.0002
  519.0000     -0.0002
  520.0000     -0.0002
  521.0000     -0.0002
  522.0000     -0.0002
  523.0000     -0.0002
  524.0000     -0.0002
  525.0000     -0.0003
  526.0000     -0.0002
  527.0000     -0.0002
  528.0000     -0.0003
  529.0000     -0.0003
  530.0000     -0.0003
  531.0000     -0.0003
  532.0000     -0.0003
  533.0000     -0.0003
  534.0000     -0.0003
  535.0000     -0.0003
  536.0000     -0.0003
  537.0000     -0.0004
  538.0000     -0.0003
  539.0000     -0.0003
  540.0000     -0.0004
  541.0000     -0.0004
  542.0000     -0.0003
  543.0000     -0.0003
  544.0000     -0.0003
  545.0000     -0.0003
  546.0000     -0.0003
  547.0000     -0.0004
  548.0000     -0.0004
  549.0000     -0.0004
  550.0000     -0.0004
  551.0000     -0.0004
  552.0000     -0.0004
  553.0000     -0.0004
  554.0000     -0.0004
  555.0000     -0.0004
  556.0000     -0.0004
  557.0000     -0.0002
  558.0000     -0.0003
  559.0000     -0.0002
  560.0000     -0.0002
  561.0000     -0.0002
  562.0000     -0.0002
  563.0000     -0.0002
  564.0000     -0.0002
  565.0000     -0.0002
  566.0000     -0.0002
  567.0000     -0.0002
  568.0000     -0.0003
  569.0000     -0.0002
  570.0000     -0.0002
  571.0000     -0.0002
  572.0000     -0.0002
  573.0000     -0.0002
  574.0000     -0.0002
  575.0000     -0.0002
  576.0000     -0.0002
  577.0000     -0.0002
  578.0000     -0.0002
  579.0000     -0.0003
  580.0000     -0.0002
  581.0000     -0.0002
  582.0000     -0.0002
  583.0000     -0.0002
  584.0000     -0.0002
  585.0000     -0.0002
  586.0000     -0.0002
  587.0000     -0.0002
  588.0000     -0.0002
  589.0000     -0.0002
  590.0000     -0.0002
  591.0000     -0.0002
  592.0000     -0.0002
  593.0000     -0.0001
  594.0000     -0.0001
  595.0000     -0.0001
  596.0000     -0.0001
  597.0000     -0.0001
  598.0000     -0.0001
  599.0000     -0.0001
  600.0000     -0.0001
  601.0000     -0.0001
  602.0000     -0.0000
  603.0000     -0.0001
  604.0000     -0.0000
  605.0000     -0.0001
  606.0000     -0.0001
  607.0000     -0.0001
  608.0000     -0.0001
  609.0000     -0.0001
  610.0000     -0.0001
  611.0000     -0.0001
  612.0000     -0.0001
  613.0000     -0.0001
  614.0000     -0.0000
  615.0000     -0.0000
  616.0000      0.0000
  617.0000     -0.0000
  618.0000     -0.0000
  619.0000     -0.0001
  620.0000     -0.0001
  621.0000     -0.0001
  622.0000     -0.0001
  623.0000     -0.0001
  624.0000     -0.0001
  625.0000     -0.0001
  626.0000     -0.0001
  627.0000     -0.0001
  628.0000     -0.0000
  629.0000     -0.0000
  630.0000      0.0001
  631.0000      0.0000
  632.0000      0.0000
  633.0000      0.0000
  634.0000      0.0000
  635.0000     -0.0000
  636.0000     -0.0000
  637.0000     -0.0000
  638.0000     -0.0000
  639.0000     -0.0000
  640.0000     -0.0000
  641.0000     -0.0000
  642.0000     -0.0001
  643.0000     -0.0000
  644.0000      0.0000
  645.0000     -0.0000
  646.0000     -0.0000
  647.0000      0.0000
  648.0000     -0.0000
  649.0000     -0.0000
  650.0000     -0.0000
  651.0000     -0.0000
  652.0000     -0.0000
  653.0000     -0.0000
  654.0000     -0.0000
  655.0000     -0.0000
  656.0000     -0.0000
  657.0000     -0.0000
  658.0000     -0.0000
  659.0000     -0.0001
  660.0000     -0.0001
  661.0000     -0.0001
  662.0000     -0.0000
  663.0000     -0.0000
  664.0000     -0.0000
  665.0000      0.0000
  666.0000      0.0000
  667.0000      0.0000
  668.0000      0.0001
  669.0000      0.0001
  670.0000      0.0001
  671.0000      0.0000
  672.0000     -0.0000
  673.0000     -0.0000
  674.0000     -0.0000
  675.0000     -0.0000
  676.0000     -0.0001
  677.0000     -0.0000
  678.0000     -0.0001
  679.0000     -0.0000
  680.0000     -0.0000
  681.0000     -0.0000
  682.0000     -0.0001
  683.0000     -0.0000
  684.0000     -0.0000
  685.0000      0.0000
  686.0000      0.0000
  687.0000      0.0000
  688.0000     -0.0000
  689.0000      0.0000
  690.0000      0.0000
  691.0000     -0.0000
  692.0000     -0.0000
  693.0000     -0.0000
  694.0000     -0.0000
  695.0000     -0.0000
  696.0000     -0.0000
  697.0000     -0.0000
  698.0000     -0.0001
  699.0000     -0.0000
  700.0000     -0.0000
  701.0000      0.0000
  702.0000     -0.0000
  703.0000     -0.0000
  704.0000     -0.0000
  705.0000     -0.0000
  706.0000     -0.0000
  707.0000     -0.0001
  708.0000     -0.0001
  709.0000     -0.0000
  710.0000     -0.0000
  711.0000      0.0000
  712.0000      0.0000
  713.0000     -0.0000
  714.0000      0.0000
  715.0000      0.0000
  716.0000     -0.0000
  717.0000     -0.0000
  718.0000     -0.0000
  719.0000      0.0000
  720.0000      0.0001
  721.0000      0.0000
  722.0000      0.0001
  723.0000      0.0001
  724.0000      0.0000
  725.0000     -0.0000
  726.0000     -0.0000
  727.0000      0.0000
  728.0000      0.0000
  729.0000      0.0000
  730.0000     -0.0000
  731.0000      0.0000
  732.0000      0.0000
  733.0000      0.0001
  734.0000      0.0001
  735.0000      0.0001
  736.0000      0.0001
  737.0000      0.0001
  738.0000      0.0001
  739.0000      0.0000
  740.0000      0.0000
  741.0000      0.0001
  742.0000      0.0000
  743.0000      0.0000
  744.0000      0.0001
  745.0000     -0.0000
  746.0000      0.0000
  747.0000      0.0000
  748.0000      0.0001
  749.0000      0.0000
  750.0000      0.0000
  751.0000     -0.0000
  752.0000     -0.0000
  753.0000     -0.0000
  754.0000     -0.0000
  755.0000     -0.0000
  756.0000     -0.0000
  757.0000     -0.0000
  758.0000      0.0000
  759.0000      0.0000
  760.0000      0.0000
  761.0000      0.0000
  762.0000     -0.0000
  763.0000     -0.0000
  764.0000     -0.0000
  765.0000     -0.0000
  766.0000     -0.0000
  767.0000      0.0000
  768.0000      0.0000
  769.0000     -0.0000
  770.0000     -0.0000
  771.0000     -0.0000
  772.0000     -0.0000
  773.0000     -0.0000
  774.0000     -0.0000
  775.0000     -0.0000
  776.0000     -0.0000
  777.0000     -0.0000
  778.0000     -0.0000
  779.0000     -0.0000
  780.0000     -0.0001
  781.0000     -0.0000
  782.0000     -0.0000
  783.0000     -0.0000
  784.0000     -0.0000
  785.0000     -0.0000
  786.0000     -0.0000
  787.0000     -0.0000
  788.0000     -0.0000
  789.0000     -0.0001
  790.0000     -0.0000
  791.0000     -0.0000
  792.0000     -0.0000
  793.0000     -0.0000
  794.0000     -0.0000
  795.0000     -0.0000
  796.0000     -0.0001
  797.0000     -0.0001
  798.0000     -0.0001
  799.0000     -0.0001
  800.0000     -0.0002
