Start Wavelength:    200.0000
End Wavelength:    800.0000
Read Mode:  ABS
Read Average:      0.1000
Nanometer Interval:      1.0000
Time:      0.0000

  200.0000      0.0108
  201.0000      0.0093
  202.0000      0.0084
  203.0000      0.0089
  204.0000      0.0083
  205.0000      0.0072
  206.0000      0.0080
  207.0000      0.0078
  208.0000      0.0073
  209.0000      0.0069
  210.0000      0.0057
  211.0000      0.0057
  212.0000      0.0061
  213.0000      0.0057
  214.0000      0.0046
  215.0000      0.0041
  216.0000      0.0046
  217.0000      0.0042
  218.0000      0.0036
  219.0000      0.0036
  220.0000      0.0038
  221.0000      0.0032
  222.0000      0.0033
  223.0000      0.0035
  224.0000      0.0026
  225.0000      0.0023
  226.0000      0.0029
  227.0000      0.0030
  228.0000      0.0028
  229.0000      0.0028
  230.0000      0.0023
  231.0000      0.0025
  232.0000      0.0031
  233.0000      0.0026
  234.0000      0.0021
  235.0000      0.0027
  236.0000      0.0027
  237.0000      0.0025
  238.0000      0.0026
  239.0000      0.0021
  240.0000      0.0027
  241.0000      0.0024
  242.0000      0.0022
  243.0000      0.0023
  244.0000      0.0019
  245.0000      0.0021
  246.0000      0.0022
  247.0000      0.0024
  248.0000      0.0023
  249.0000      0.0020
  250.0000      0.0024
  251.0000      0.0023
  252.0000      0.0023
  253.0000      0.0024
  254.0000      0.0014
  255.0000      0.0023
  256.0000      0.0022
  257.0000      0.0020
  258.0000      0.0020
  259.0000      0.0017
  260.0000      0.0018
  261.0000      0.0018
  262.0000      0.0022
  263.0000      0.0023
  264.0000      0.0014
  265.0000      0.0024
  266.0000      0.0017
  267.0000      0.0020
  268.0000      0.0023
  269.0000      0.0018
  270.0000      0.0014
  271.0000      0.0019
  272.0000      0.0019
  273.0000      0.0017
  274.0000      0.0017
  275.0000      0.0017
  276.0000      0.0018
  277.0000      0.0016
  278.0000      0.0020
  279.0000      0.0016
  280.0000      0.0018
  281.0000      0.0019
  282.0000      0.0014
  283.0000      0.0019
  284.0000      0.0022
  285.0000      0.0017
  286.0000      0.0019
  287.0000      0.0011
  288.0000      0.0019
  289.0000      0.0021
  290.0000      0.0019
  291.0000      0.0012
  292.0000      0.0017
  293.0000      0.0026
  294.0000      0.0015
  295.0000      0.0018
  296.0000      0.0017
  297.0000      0.0012
  298.0000      0.0016
  299.0000      0.0017
  300.0000      0.0012
  301.0000      0.0004
  302.0000      0.0017
  303.0000      0.0017
  304.0000      0.0016
  305.0000      0.0017
  306.0000      0.0016
  307.0000      0.0012
  308.0000      0.0016
  309.0000      0.0016
  310.0000      0.0012
  311.0000      0.0006
  312.0000      0.0019
  313.0000      0.0016
  314.0000      0.0017
  315.0000      0.0016
  316.0000      0.0012
  317.0000      0.0014
  318.0000      0.0012
  319.0000      0.0013
  320.0000      0.0014
  321.0000      0.0014
  322.0000      0.0015
  323.0000      0.0010
  324.0000      0.0018
  325.0000      0.0017
  326.0000      0.0015
  327.0000      0.0010
  328.0000      0.0013
  329.0000      0.0016
  330.0000      0.0020
  331.0000      0.0012
  332.0000      0.0011
  333.0000      0.0013
  334.0000      0.0018
  335.0000      0.0014
  336.0000      0.0009
  337.0000      0.0013
  338.0000      0.0013
  339.0000      0.0014
  340.0000      0.0012
  341.0000      0.0016
  342.0000      0.0013
  343.0000      0.0010
  344.0000      0.0009
  345.0000      0.0014
  346.0000      0.0013
  347.0000      0.0014
  348.0000      0.0008
  349.0000      0.0013
  350.0000      0.0008
  351.0000      0.0011
  352.0000      0.0009
  353.0000      0.0013
  354.0000      0.0012
  355.0000      0.0009
  356.0000      0.0008
  357.0000     -0.0005
  358.0000      0.0007
  359.0000      0.0013
  360.0000      0.0026
  361.0000      0.0013
  362.0000     -0.0010
  363.0000      0.0012
  364.0000      0.0018
  365.0000      0.0015
  366.0000     -0.0004
  367.0000      0.0007
  368.0000      0.0025
  369.0000      0.0003
  370.0000      0.0007
  371.0000      0.0013
  372.0000      0.0018
  373.0000      0.0005
  374.0000      0.0003
  375.0000      0.0010
  376.0000      0.0004
  377.0000      0.0013
  378.0000      0.0012
  379.0000      0.0009
  380.0000      0.0001
  381.0000      0.0005
  382.0000      0.0006
  383.0000      0.0011
  384.0000      0.0009
  385.0000      0.0009
  386.0000      0.0003
  387.0000      0.0002
  388.0000      0.0013
  389.0000      0.0018
  390.0000      0.0008
  391.0000      0.0010
  392.0000      0.0015
  393.0000      0.0009
  394.0000      0.0004
  395.0000      0.0006
  396.0000      0.0015
  397.0000      0.0016
  398.0000      0.0004
  399.0000      0.0009
  400.0000      0.0009
  401.0000      0.0009
  402.0000      0.0005
  403.0000      0.0007
  404.0000      0.0005
  405.0000      0.0006
  406.0000      0.0009
  407.0000      0.0008
  408.0000      0.0004
  409.0000      0.0007
  410.0000      0.0004
  411.0000      0.0007
  412.0000      0.0007
  413.0000      0.0002
  414.0000      0.0007
  415.0000      0.0007
  416.0000      0.0007
  417.0000      0.0008
  418.0000      0.0007
  419.0000      0.0007
  420.0000      0.0008
  421.0000      0.0008
  422.0000      0.0008
  423.0000      0.0008
  424.0000      0.0008
  425.0000      0.0006
  426.0000      0.0006
  427.0000      0.0006
  428.0000      0.0008
  429.0000      0.0008
  430.0000      0.0008
  431.0000      0.0007
  432.0000      0.0007
  433.0000      0.0007
  434.0000      0.0007
  435.0000      0.0009
  436.0000      0.0007
  437.0000      0.0008
  438.0000      0.0007
  439.0000      0.0007
  440.0000      0.0006
  441.0000      0.0007
  442.0000      0.0007
  443.0000      0.0007
  444.0000      0.0005
  445.0000      0.0005
  446.0000      0.0006
  447.0000      0.0005
  448.0000      0.0006
  449.0000      0.0005
  450.0000      0.0006
  451.0000      0.0005
  452.0000      0.0005
  453.0000      0.0005
  454.0000      0.0004
  455.0000      0.0005
  456.0000      0.0004
  457.0000      0.0004
  458.0000      0.0003
  459.0000      0.0003
  460.0000      0.0004
  461.0000      0.0005
  462.0000      0.0004
  463.0000      0.0006
  464.0000      0.0006
  465.0000      0.0006
  466.0000      0.0006
  467.0000      0.0007
  468.0000      0.0007
  469.0000      0.0008
  470.0000      0.0007
  471.0000      0.0007
  472.0000      0.0008
  473.0000      0.0006
  474.0000      0.0006
  475.0000      0.0006
  476.0000      0.0006
  477.0000      0.0006
  478.0000      0.0005
  479.0000      0.0006
  480.0000      0.0005
  481.0000      0.0004
  482.0000      0.0004
  483.0000      0.0005
  484.0000      0.0004
  485.0000      0.0004
  486.0000      0.0004
  487.0000      0.0004
  488.0000      0.0004
  489.0000      0.0003
  490.0000      0.0003
  491.0000      0.0004
  492.0000      0.0004
  493.0000      0.0003
  494.0000      0.0003
  495.0000      0.0003
  496.0000      0.0003
  497.0000      0.0003
  498.0000      0.0003
  499.0000      0.0003
  500.0000      0.0003
  501.0000      0.0003
  502.0000      0.0003
  503.0000      0.0003
  504.0000      0.0002
  505.0000      0.0002
  506.0000      0.0002
  507.0000      0.0002
  508.0000      0.0002
  509.0000      0.0002
  510.0000      0.0002
  511.0000      0.0002
  512.0000      0.0002
  513.0000      0.0002
  514.0000      0.0002
  515.0000      0.0001
  516.0000      0.0001
  517.0000      0.0001
  518.0000      0.0002
  519.0000      0.0002
  520.0000      0.0002
  521.0000      0.0001
  522.0000      0.0002
  523.0000      0.0001
  524.0000      0.0001
  525.0000      0.0001
  526.0000      0.0001
  527.0000      0.0001
  528.0000      0.0001
  529.0000      0.0001
  530.0000      0.0001
  531.0000      0.0001
  532.0000      0.0001
  533.0000      0.0001
  534.0000      0.0001
  535.0000      0.0001
  536.0000      0.0001
  537.0000      0.0001
  538.0000      0.0001
  539.0000      0.0001
  540.0000      0.0001
  541.0000      0.0000
  542.0000      0.0001
  543.0000      0.0001
  544.0000      0.0001
  545.0000      0.0001
  546.0000      0.0001
  547.0000      0.0001
  548.0000      0.0001
  549.0000      0.0001
  550.0000      0.0000
  551.0000      0.0000
  552.0000      0.0001
  553.0000      0.0000
  554.0000      0.0000
  555.0000      0.0000
  556.0000      0.0000
  557.0000      0.0001
  558.0000      0.0001
  559.0000      0.0001
  560.0000      0.0001
  561.0000      0.0000
  562.0000      0.0001
  563.0000      0.0001
  564.0000      0.0001
  565.0000      0.0001
  566.0000      0.0001
  567.0000      0.0001
  568.0000      0.0000
  569.0000      0.0001
  570.0000      0.0001
  571.0000      0.0001
  572.0000      0.0000
  573.0000      0.0001
  574.0000      0.0001
  575.0000      0.0001
  576.0000      0.0000
  577.0000      0.0000
  578.0000      0.0001
  579.0000      0.0000
  580.0000      0.0000
  581.0000      0.0000
  582.0000      0.0000
  583.0000      0.0000
  584.0000      0.0000
  585.0000      0.0000
  586.0000      0.0000
  587.0000      0.0000
  588.0000      0.0000
  589.0000      0.0000
  590.0000     -0.0000
  591.0000     -0.0000
  592.0000      0.0000
  593.0000      0.0000
  594.0000      0.0000
  595.0000      0.0000
  596.0000      0.0000
  597.0000      0.0001
  598.0000      0.0000
  599.0000      0.0000
  600.0000     -0.0000
  601.0000      0.0000
  602.0000      0.0000
  603.0000     -0.0000
  604.0000      0.0000
  605.0000      0.0000
  606.0000      0.0000
  607.0000      0.0000
  608.0000     -0.0000
  609.0000      0.0000
  610.0000     -0.0000
  611.0000      0.0000
  612.0000      0.0000
  613.0000     -0.0000
  614.0000     -0.0000
  615.0000      0.0000
  616.0000      0.0000
  617.0000      0.0000
  618.0000     -0.0000
  619.0000      0.0000
  620.0000      0.0000
  621.0000     -0.0000
  622.0000      0.0000
  623.0000      0.0000
  624.0000      0.0000
  625.0000      0.0000
  626.0000      0.0000
  627.0000      0.0001
  628.0000      0.0000
  629.0000      0.0001
  630.0000      0.0000
  631.0000      0.0000
  632.0000      0.0001
  633.0000      0.0000
  634.0000     -0.0000
  635.0000     -0.0000
  636.0000      0.0000
  637.0000      0.0000
  638.0000      0.0000
  639.0000     -0.0000
  640.0000     -0.0000
  641.0000      0.0000
  642.0000      0.0000
  643.0000      0.0000
  644.0000      0.0000
  645.0000      0.0000
  646.0000      0.0000
  647.0000      0.0000
  648.0000      0.0000
  649.0000      0.0000
  650.0000     -0.0000
  651.0000     -0.0000
  652.0000      0.0000
  653.0000     -0.0000
  654.0000     -0.0000
  655.0000      0.0000
  656.0000      0.0000
  657.0000      0.0000
  658.0000      0.0000
  659.0000      0.0000
  660.0000      0.0000
  661.0000      0.0001
  662.0000      0.0001
  663.0000      0.0000
  664.0000      0.0000
  665.0000      0.0000
  666.0000      0.0000
  667.0000      0.0000
  668.0000      0.0000
  669.0000      0.0000
  670.0000      0.0001
  671.0000      0.0001
  672.0000      0.0001
  673.0000      0.0001
  674.0000      0.0001
  675.0000      0.0001
  676.0000      0.0001
  677.0000      0.0001
  678.0000      0.0000
  679.0000      0.0000
  680.0000      0.0001
  681.0000      0.0001
  682.0000      0.0001
  683.0000      0.0000
  684.0000      0.0001
  685.0000      0.0001
  686.0000      0.0000
  687.0000      0.0000
  688.0000      0.0000
  689.0000      0.0001
  690.0000      0.0000
  691.0000      0.0000
  692.0000      0.0000
  693.0000      0.0000
  694.0000      0.0000
  695.0000      0.0001
  696.0000      0.0001
  697.0000      0.0001
  698.0000      0.0000
  699.0000      0.0001
  700.0000      0.0001
  701.0000      0.0001
  702.0000      0.0001
  703.0000      0.0001
  704.0000      0.0001
  705.0000      0.0001
  706.0000      0.0001
  707.0000      0.0000
  708.0000      0.0001
  709.0000      0.0001
  710.0000      0.0001
  711.0000      0.0001
  712.0000      0.0001
  713.0000      0.0001
  714.0000      0.0000
  715.0000      0.0001
  716.0000      0.0000
  717.0000      0.0001
  718.0000      0.0000
  719.0000      0.0000
  720.0000      0.0000
  721.0000      0.0000
  722.0000      0.0000
  723.0000      0.0000
  724.0000      0.0000
  725.0000      0.0000
  726.0000      0.0000
  727.0000     -0.0000
  728.0000     -0.0000
  729.0000     -0.0000
  730.0000     -0.0000
  731.0000     -0.0000
  732.0000     -0.0000
  733.0000     -0.0000
  734.0000     -0.0000
  735.0000     -0.0000
  736.0000     -0.0001
  737.0000     -0.0001
  738.0000     -0.0001
  739.0000     -0.0001
  740.0000     -0.0001
  741.0000     -0.0001
  742.0000     -0.0001
  743.0000     -0.0000
  744.0000     -0.0001
  745.0000     -0.0001
  746.0000     -0.0001
  747.0000     -0.0001
  748.0000     -0.0001
  749.0000     -0.0000
  750.0000     -0.0000
  751.0000     -0.0001
  752.0000     -0.0000
  753.0000     -0.0001
  754.0000     -0.0000
  755.0000     -0.0001
  756.0000     -0.0000
  757.0000     -0.0001
  758.0000     -0.0000
  759.0000     -0.0001
  760.0000     -0.0001
  761.0000     -0.0000
  762.0000     -0.0000
  763.0000     -0.0001
  764.0000     -0.0001
  765.0000     -0.0000
  766.0000     -0.0000
  767.0000     -0.0000
  768.0000     -0.0001
  769.0000     -0.0001
  770.0000     -0.0001
  771.0000     -0.0001
  772.0000     -0.0000
  773.0000     -0.0000
  774.0000     -0.0001
  775.0000     -0.0000
  776.0000     -0.0000
  777.0000     -0.0000
  778.0000     -0.0000
  779.0000     -0.0000
  780.0000      0.0001
  781.0000      0.0000
  782.0000     -0.0000
  783.0000      0.0001
  784.0000      0.0001
  785.0000     -0.0000
  786.0000     -0.0000
  787.0000      0.0000
  788.0000     -0.0000
  789.0000      0.0000
  790.0000     -0.0000
  791.0000     -0.0000
  792.0000     -0.0000
  793.0000     -0.0000
  794.0000     -0.0000
  795.0000     -0.0000
  796.0000      0.0000
  797.0000     -0.0000
  798.0000     -0.0000
  799.0000     -0.0000
  800.0000     -0.0001
